Apr. 7, 2019   11:41:00
Differential Pulse Voltammetry
File: D:\process\data\dpv1.bin.txt
Data Source:  Experiment
Instrument Model:  CHI900D
Header: 
Note: 

Init E (V) = 0.5
Final E (V) = -0.1
Incr E (V) = 0.004
Amplitude (V) = 0.05
Pulse Width (sec) = 0.05
Sample Width (sec) = 0.0167
Pulse Period (sec) = 0.5
Quiet Time (sec) = 2
Sensitivity (A/V) = 1e-5

Potential/V, Current/A

0.496, 8.490e-7
0.492, 8.394e-7
0.488, 8.309e-7
0.484, 8.237e-7
0.480, 8.174e-7
0.476, 8.119e-7
0.472, 8.068e-7
0.468, 8.024e-7
0.464, 7.985e-7
0.460, 7.949e-7
0.456, 7.920e-7
0.452, 7.895e-7
0.448, 7.874e-7
0.444, 7.860e-7
0.440, 7.848e-7
0.436, 7.836e-7
0.432, 7.836e-7
0.428, 7.842e-7
0.424, 7.856e-7
0.420, 7.875e-7
0.416, 7.903e-7
0.412, 7.941e-7
0.408, 7.989e-7
0.404, 8.037e-7
0.400, 8.104e-7
0.396, 8.186e-7
0.392, 8.286e-7
0.388, 8.398e-7
0.384, 8.537e-7
0.380, 8.695e-7
0.376, 8.878e-7
0.372, 9.094e-7
0.368, 9.345e-7
0.364, 9.634e-7
0.360, 9.970e-7
0.356, 1.035e-6
0.352, 1.081e-6
0.348, 1.132e-6
0.344, 1.191e-6
0.340, 1.259e-6
0.336, 1.337e-6
0.332, 1.427e-6
0.328, 1.530e-6
0.324, 1.647e-6
0.320, 1.781e-6
0.316, 1.932e-6
0.312, 2.103e-6
0.308, 2.294e-6
0.304, 2.508e-6
0.300, 2.743e-6
0.296, 3.003e-6
0.292, 3.284e-6
0.288, 3.588e-6
0.284, 3.910e-6
0.280, 4.250e-6
0.276, 4.597e-6
0.272, 4.952e-6
0.268, 5.307e-6
0.264, 5.654e-6
0.260, 5.980e-6
0.256, 6.284e-6
0.252, 6.553e-6
0.248, 6.783e-6
0.244, 6.961e-6
0.240, 7.085e-6
0.236, 7.152e-6
0.232, 7.158e-6
0.228, 7.104e-6
0.224, 6.994e-6
0.220, 6.830e-6
0.216, 6.619e-6
0.212, 6.367e-6
0.208, 6.082e-6
0.204, 5.773e-6
0.200, 5.445e-6
0.196, 5.112e-6
0.192, 4.778e-6
0.188, 4.451e-6
0.184, 4.133e-6
0.180, 3.830e-6
0.176, 3.545e-6
0.172, 3.282e-6
0.168, 3.036e-6
0.164, 2.811e-6
0.160, 2.605e-6
0.156, 2.418e-6
0.152, 2.248e-6
0.148, 2.094e-6
0.144, 1.955e-6
0.140, 1.830e-6
0.136, 1.717e-6
0.132, 1.614e-6
0.128, 1.521e-6
0.124, 1.438e-6
0.120, 1.362e-6
0.116, 1.293e-6
0.112, 1.232e-6
0.108, 1.176e-6
0.104, 1.126e-6
0.100, 1.081e-6
0.096, 1.041e-6
0.092, 1.004e-6
0.088, 9.728e-7
0.084, 9.434e-7
0.080, 9.180e-7
0.076, 8.956e-7
0.072, 8.757e-7
0.068, 8.571e-7
0.064, 8.413e-7
0.060, 8.277e-7
0.056, 8.155e-7
0.052, 8.046e-7
0.048, 7.958e-7
0.044, 7.884e-7
0.040, 7.820e-7
0.036, 7.760e-7
0.032, 7.714e-7
0.028, 7.671e-7
0.024, 7.638e-7
0.020, 7.610e-7
0.016, 7.592e-7
0.012, 7.576e-7
0.008, 7.564e-7
0.004, 7.553e-7
-0.000, 7.548e-7
-0.004, 7.543e-7
-0.008, 7.547e-7
-0.012, 7.550e-7
-0.016, 7.562e-7
-0.020, 7.574e-7
-0.024, 7.587e-7
-0.028, 7.604e-7
-0.032, 7.621e-7
-0.036, 7.642e-7
-0.040, 7.663e-7
-0.044, 7.687e-7
-0.048, 7.712e-7
-0.052, 7.740e-7
-0.056, 7.769e-7
-0.060, 7.802e-7
-0.064, 7.834e-7
-0.068, 7.868e-7
-0.072, 7.904e-7
-0.076, 7.939e-7
-0.080, 7.980e-7
-0.084, 8.018e-7
-0.088, 8.061e-7
-0.092, 8.104e-7
-0.096, 8.152e-7
-0.100, 8.201e-7
